File: experimental_data/xrd_data/residual_stress/stress_profile.csv
Depth_um,Residual_Stress_MPa,Layer,Measurement_Error_MPa,Peak_Width_deg,Peak_Intensity
0.0,-201.77,anode,10.4078,0.120167,1128.45
2.8392,-195.72,anode,14.5471,0.185743,3758.7
5.67839,-189.146,anode,13.1924,0.272913,3994.88
8.51759,-198.178,anode,11.1385,0.298351,2263.82
11.3568,-190.277,anode,9.46338,0.182905,1682.6
14.196,-209.011,anode,14.9974,0.118427,1644.19
17.0352,-194.662,anode,11.0462,0.222037,3840.07
19.8744,-172.482,anode,6.93915,0.251191,2420.37
22.7136,-190.009,anode,9.0811,0.259237,3639.23
25.5528,-186.102,anode,14.339,0.144536,3490.68
28.392,-177.938,anode,11.0297,0.105993,3806.92
31.2312,-171.101,anode,13.2609,0.162339,3417.99
34.0704,-175.743,anode,11.0403,0.151184,3791.67
36.9095,-176.623,anode,11.0775,0.271726,3156.82
39.7487,-187.587,anode,8.71507,0.286725,3398.4
42.5879,-174.986,anode,11.0079,0.189564,3401.64
45.4271,-178.836,anode,9.14563,0.169772,1897.13
48.2663,-154.879,anode,13.5054,0.27425,3020.8
51.1055,-162.904,anode,8.35611,0.131282,3433.98
53.9447,-169.963,anode,13.6176,0.117128,2566.46
56.7839,-162.73,anode,6.95077,0.235698,2002.87
59.6231,-149.378,anode,7.7896,0.274891,2616.17
62.4623,-159.094,anode,5.07548,0.12001,3847.7
65.3015,-166.725,anode,14.015,0.252813,1154.07
68.1407,-179.962,anode,11.2978,0.166313,3432.13
70.9799,-148.561,anode,12.5299,0.179684,1013.84
73.8191,-153.051,anode,10.7756,0.173548,1113.74
76.6583,-169.343,anode,6.49733,0.253131,1526.09
79.4975,-169.335,anode,10.994,0.112113,4885.93
82.3367,-149.006,anode,8.75575,0.254776,1974.02
85.1759,-165.305,anode,6.91331,0.100345,1059.01
88.0151,-127.842,anode,5.46162,0.252217,4517.4
90.8543,-157.095,anode,14.8542,0.183842,2701.01
93.6935,-156.232,anode,13.6988,0.235971,4964.2
96.5327,-146.383,anode,10.0859,0.124211,4535.54
99.3719,-160.442,anode,13.6889,0.171246,2612.87
102.211,-149.834,anode,10.0275,0.120885,1546.39
105.05,-126.554,anode,12.8856,0.180965,1778.11
107.889,-148.282,anode,5.2909,0.28474,1720.01
110.729,-148.157,anode,10.87,0.274689,1893.08
113.568,-140.508,anode,10.4028,0.198925,4920.34
116.407,-130.446,anode,7.76273,0.292882,4807.15
119.246,-133.808,anode,8.19076,0.131114,3576.15
122.085,-119.051,anode,7.09505,0.19073,1600.21
124.925,-129.025,anode,10.9303,0.237287,4724.94
127.764,-141.635,anode,8.20788,0.100983,1800.45
130.603,-136.58,anode,7.36394,0.143771,1293.83
133.442,-131.759,anode,6.88169,0.11346,3183.45
136.281,-122.101,anode,9.04038,0.210755,3541.26
139.121,-128.247,anode,10.4066,0.17984,3843.77
141.96,-144.015,anode,6.14452,0.140412,1099.68
144.799,-128.629,anode,10.8836,0.13803,3849.48
147.638,-126.622,anode,12.4633,0.145639,3903.37
150.477,-117.012,anode,12.9616,0.216093,4776.04
153.317,-120.608,anode,7.48519,0.190166,4479.89
156.156,-126.01,anode,8.6995,0.162981,3937.22
158.995,-134.258,anode,13.7216,0.228742,3878.13
161.834,-137.22,anode,7.40487,0.13536,2315.33
164.673,-130.787,anode,8.47212,0.20045,2314.21
167.513,-115.898,anode,14.8126,0.20286,3729.39
170.352,-116.236,anode,11.3128,0.220698,3886.65
173.191,-112.067,anode,6.63385,0.225091,4481.14
176.03,-109.964,anode,12.5512,0.271305,3893.02
178.869,-119.834,anode,8.45175,0.141205,2455.08
181.709,-115.411,anode,9.87457,0.282846,2024.84
184.548,-118.866,anode,7.42802,0.270845,4652.49
187.387,-104.632,anode,14.9982,0.250513,3088.82
190.226,-108.414,anode,8.53822,0.117757,1314.01
193.065,-112.908,anode,8.09222,0.182093,4148.06
195.905,-104.505,anode,12.1921,0.153639,1463.26
198.744,-96.5506,anode,6.52514,0.232299,4310.98
201.583,-111.887,anode,14.901,0.190783,1999.25
204.422,-115.77,anode,9.84833,0.213625,1893.55
207.261,-85.445,anode,13.7368,0.280013,3455.64
210.101,-87.2286,anode,11.1023,0.131954,1331.61
212.94,-83.6519,anode,6.60063,0.238475,4681
215.779,-88.5816,anode,10.6511,0.282574,1883.99
218.618,-83.2086,anode,6.85635,0.287559,4712.08
221.457,-102.295,anode,14.4263,0.123001,4928.53
224.296,-78.6045,anode,5.01919,0.277467,4113.1
227.136,-105.524,anode,11.9786,0.235869,4259.89
229.975,-95.3979,anode,13.6537,0.14434,2538.01
232.814,-79.077,anode,13.0423,0.15082,3292.38
235.653,-92.3502,anode,7.65108,0.218139,4981.51
238.492,-89.2582,anode,12.4318,0.130773,4131.19
241.332,-74.2668,anode,11.4845,0.193696,3511.56
244.171,-85.3553,anode,9.03561,0.178593,3902.1
247.01,-68.6389,anode,11.2016,0.156356,2612.88
249.849,-86.2632,anode,14.7443,0.101625,1710.88
252.688,-64.3697,anode,14.8547,0.254043,2149.19
255.528,-87.798,anode,5.8512,0.199463,2234.53
258.367,-58.822,anode,5.51868,0.298159,2455.41
261.206,-64.8733,anode,12.4599,0.149231,2967.91
264.045,-57.7585,anode,9.79535,0.193483,1643.69
266.884,-61.0419,anode,7.04865,0.170254,2138.38
269.724,-65.74,anode,8.33148,0.102656,1797.7
272.563,-72.6688,anode,5.33336,0.284073,2510.21
275.402,-65.5028,anode,8.43848,0.211281,3096.56
278.241,-52.1057,anode,10.1036,0.285154,3322.62
281.08,-66.1066,anode,6.76591,0.206511,2990.77
283.92,-46.2171,anode,14.2771,0.171196,3105.31
286.759,-72.2207,anode,12.3088,0.113027,1773.76
289.598,-54.5117,anode,12.5442,0.284568,4959.09
292.437,-61.4671,anode,6.33916,0.150257,4535.69
295.276,-52.551,anode,7.12118,0.135723,4985.94
298.116,-58.913,anode,8.49713,0.11453,3395.58
300.955,-55.7638,anode,9.24387,0.13309,2879.15
303.794,-51.915,anode,10.1394,0.286021,4129.42
306.633,-51.2981,anode,12.7213,0.200408,4484.02
309.472,-52.8525,anode,5.98893,0.183251,1779.11
312.312,-27.6496,anode,10.2252,0.280308,1748.19
315.151,-38.8662,anode,12.0089,0.122525,3636.04
317.99,-54.4278,anode,7.14486,0.264721,3822.04
320.829,-32.9179,anode,13.2028,0.10424,3260.19
323.668,-30.2517,anode,13.9318,0.230256,2954.44
326.508,-19.7793,anode,11.0658,0.156715,3278.9
329.347,-35.9994,anode,6.75239,0.112086,2242.59
332.186,-44.1232,anode,14.4137,0.134482,4161.47
335.025,-26.3082,anode,12.5314,0.105905,4325.66
337.864,-43.8738,anode,5.48278,0.173207,1498.1
340.704,-24.2342,anode,5.16443,0.181846,3696.7
343.543,-21.1158,anode,5.1866,0.240818,4988.06
346.382,-35.3819,anode,6.22325,0.250288,1596.85
349.221,-23.9926,anode,12.8712,0.16702,4035.16
352.06,-11.8567,anode,10.0187,0.12179,4378.42
354.899,-19.3533,anode,9.98072,0.294483,4164.29
357.739,-46.6398,anode,5.66073,0.298456,3768.38
360.578,-21.5397,anode,13.7054,0.132979,4977.96
363.417,-6.8931,anode,13.7367,0.238646,3239.58
366.256,-17.8595,anode,5.3905,0.165082,4823.75
369.095,-18.2044,anode,13.9756,0.237425,1740.04
371.935,-26.1096,anode,9.41383,0.163442,4382.71
374.774,-1.87959,anode,7.46928,0.20685,3138.45
377.613,-20.0452,anode,5.09555,0.110873,4686.27
380.452,-18.8963,anode,14.4474,0.203921,1472.5
383.291,4.54204,anode,7.40387,0.159397,1816.54
386.131,14.1366,anode,13.4771,0.288061,4076.81
388.97,-1.51087,anode,11.7623,0.206351,4160.86
391.809,-15.9955,anode,10.5476,0.113327,4359.47
394.648,11.7706,anode,5.2627,0.125389,2356.13
397.487,-10.0635,anode,14.8958,0.200518,4497.68
400.327,-0.29903,anode,6.47106,0.171854,4707.46
403.166,-18.4816,anode,7.65367,0.281138,4246.03
406.005,7.45875,anode,14.5538,0.256174,1220.55
408.844,10.864,anode,7.64977,0.169003,4196.77
411.683,6.25522,anode,9.02734,0.166015,4422.3
414.523,12.3515,anode,7.27347,0.167279,2963.52
417.362,0.124781,anode,8.10855,0.190988,1551.14
420.201,7.17938,anode,13.1366,0.176794,4546.79
423.04,16.7151,anode,14.2407,0.253021,2574.83
425.879,9.90399,anode,7.44652,0.189481,2100.03
428.719,22.7413,anode,5.97221,0.288277,1309.38
431.558,-0.0214125,anode,13.2755,0.267167,2291.75
434.397,35.8921,anode,12.551,0.148766,2125.45
437.236,11.5896,anode,9.05533,0.268627,3472.99
440.075,11.0488,anode,7.88481,0.208599,2694.02
442.915,32.0636,anode,7.72081,0.265062,2009.48
445.754,4.01904,anode,6.38303,0.133142,4422.95
448.593,16.5555,anode,5.34636,0.176673,2784.54
451.432,29.0578,anode,13.168,0.278152,2325.56
454.271,36.5596,anode,7.89085,0.181881,2337.6
457.111,31.0536,anode,6.5242,0.165074,4492.96
459.95,26.5876,anode,5.11237,0.166597,3414.36
462.789,54.896,anode,5.14407,0.229343,1908.79
465.628,36.6892,anode,9.73903,0.257666,1316.42
468.467,21.6662,anode,10.7023,0.182346,1162.34
471.307,38.1413,anode,14.0891,0.133187,2567.14
474.146,23.4794,anode,8.1942,0.252863,4999.64
476.985,37.6154,anode,6.15005,0.163463,3595.25
479.824,58.0175,anode,11.7201,0.191293,2935.24
482.663,48.6157,anode,11.0569,0.174954,2081.44
485.503,39.2118,anode,12.9285,0.103051,2028.43
488.342,38.2326,anode,14.6048,0.220407,4796.42
491.181,52.4013,anode,14.3853,0.173007,3431.53
494.02,50.4733,anode,14.1776,0.121055,3298.78
496.859,35.7026,anode,6.06142,0.14446,2075.17
499.698,63.8651,anode,9.11785,0.151249,4263.78
502.538,-70.7784,electrolyte,6.98049,0.227303,3164.71
505.377,12.7769,electrolyte,9.64886,0.107219,1748.62
508.216,92.8741,electrolyte,5.31681,0.150463,2901.78
511.055,142.336,electrolyte,8.64382,0.243157,1311.87
513.894,208.098,electrolyte,5.40959,0.265876,1878.79
516.734,-164.132,cathode,5.01415,0.105669,3667.67
519.573,-140.275,cathode,13.7684,0.293853,2071.08
522.412,-115.392,cathode,13.3875,0.222488,3237.43
525.251,-103.472,cathode,13.8855,0.12957,2332.63
528.09,-87.1265,cathode,13.2533,0.118634,4408.86
530.93,-74.5747,cathode,7.18064,0.282247,4834.11
533.769,-29.3663,cathode,6.84237,0.194341,2665.41
536.608,-38.24,cathode,13.327,0.16143,1451.87
539.447,-29.6797,cathode,13.9655,0.294198,3241.53
542.286,-11.1884,cathode,14.1208,0.120608,4830.04
545.126,10.7256,cathode,10.1519,0.139072,1796.87
547.965,4.96373,cathode,9.0182,0.1752,3055.77
550.804,27.016,cathode,10.782,0.130461,3277.32
553.643,42.1887,cathode,13.662,0.116623,2475.92
556.482,70.9412,cathode,7.88117,0.175605,3241.03
559.322,87.7932,cathode,14.2963,0.265393,4762.19
562.161,96.9805,cathode,10.6215,0.163026,2114.72
565.0,0.0,unknown,9.55818,0.230145,4174.53