File: experimental_data/postmortem_data/nanoindentation/LSM_load_displacement.csv
Time_s,Load_mN,Displacement_nm,Phase,Modulus_GPa,Hardness_GPa
0.0,0.0,0.0,LSM,103.649,6.71771
0.204082,0.198033,27571.6,LSM,103.649,6.71771
0.408163,0.396066,77984.2,LSM,103.649,6.71771
0.612245,0.594099,143266,LSM,103.649,6.71771
0.816327,0.792132,220573,LSM,103.649,6.71771
1.02041,0.990165,308260,LSM,103.649,6.71771
1.22449,1.1882,405218,LSM,103.649,6.71771
1.42857,1.38623,510633,LSM,103.649,6.71771
1.63265,1.58426,623873,LSM,103.649,6.71771
1.83673,1.7823,744432,LSM,103.649,6.71771
2.04082,1.98033,871890,LSM,103.649,6.71771
2.2449,2.17836,1.00589e+06,LSM,103.649,6.71771
2.44898,2.3764,1.14613e+06,LSM,103.649,6.71771
2.65306,2.57443,1.29234e+06,LSM,103.649,6.71771
2.85714,2.77246,1.44429e+06,LSM,103.649,6.71771
3.06122,2.97049,1.60176e+06,LSM,103.649,6.71771
3.26531,3.16853,1.76458e+06,LSM,103.649,6.71771
3.46939,3.36656,1.93257e+06,LSM,103.649,6.71771
3.67347,3.56459,2.10557e+06,LSM,103.649,6.71771
3.87755,3.76263,2.28345e+06,LSM,103.649,6.71771
4.08163,3.96066,2.46608e+06,LSM,103.649,6.71771
4.28571,4.15869,2.65333e+06,LSM,103.649,6.71771
4.4898,4.35673,2.84509e+06,LSM,103.649,6.71771
4.69388,4.55476,3.04126e+06,LSM,103.649,6.71771
4.89796,4.75279,3.24174e+06,LSM,103.649,6.71771
5.10204,4.95082,3.44645e+06,LSM,103.649,6.71771
5.30612,5.14886,3.65529e+06,LSM,103.649,6.71771
5.5102,5.34689,3.86818e+06,LSM,103.649,6.71771
5.71429,5.54492,4.08506e+06,LSM,103.649,6.71771
5.91837,5.74296,4.30585e+06,LSM,103.649,6.71771
6.12245,5.94099,4.53047e+06,LSM,103.649,6.71771
6.32653,6.13902,4.75887e+06,LSM,103.649,6.71771
6.53061,6.33705,4.99099e+06,LSM,103.649,6.71771
6.73469,6.53509,5.22676e+06,LSM,103.649,6.71771
6.93878,6.73312,5.46613e+06,LSM,103.649,6.71771
7.14286,6.93115,5.70905e+06,LSM,103.649,6.71771
7.34694,7.12919,5.95546e+06,LSM,103.649,6.71771
7.55102,7.32722,6.20532e+06,LSM,103.649,6.71771
7.7551,7.52525,6.45858e+06,LSM,103.649,6.71771
7.95918,7.72329,6.71519e+06,LSM,103.649,6.71771
8.16327,7.92132,6.97512e+06,LSM,103.649,6.71771
8.36735,8.11935,7.23831e+06,LSM,103.649,6.71771
8.57143,8.31738,7.50474e+06,LSM,103.649,6.71771
8.77551,8.51542,7.77435e+06,LSM,103.649,6.71771
8.97959,8.71345,8.04712e+06,LSM,103.649,6.71771
9.18367,8.91148,8.32301e+06,LSM,103.649,6.71771
9.38776,9.10952,8.60198e+06,LSM,103.649,6.71771
9.59184,9.30755,8.884e+06,LSM,103.649,6.71771
9.79592,9.50558,9.16903e+06,LSM,103.649,6.71771
10.0,9.70362,9.45705e+06,LSM,103.649,6.71771
10.0,9.70362,9.45705e+06,LSM,103.649,6.71771
10.5263,9.70362,9.48194e+06,LSM,103.649,6.71771
11.0526,9.70362,9.50682e+06,LSM,103.649,6.71771
11.5789,9.70362,9.53171e+06,LSM,103.649,6.71771
12.1053,9.70362,9.5566e+06,LSM,103.649,6.71771
12.6316,9.70362,9.58148e+06,LSM,103.649,6.71771
13.1579,9.70362,9.60637e+06,LSM,103.649,6.71771
13.6842,9.70362,9.63126e+06,LSM,103.649,6.71771
14.2105,9.70362,9.65615e+06,LSM,103.649,6.71771
14.7368,9.70362,9.68103e+06,LSM,103.649,6.71771
15.2632,9.70362,9.70592e+06,LSM,103.649,6.71771
15.7895,9.70362,9.73081e+06,LSM,103.649,6.71771
16.3158,9.70362,9.75569e+06,LSM,103.649,6.71771
16.8421,9.70362,9.78058e+06,LSM,103.649,6.71771
17.3684,9.70362,9.80547e+06,LSM,103.649,6.71771
17.8947,9.70362,9.83035e+06,LSM,103.649,6.71771
18.4211,9.70362,9.85524e+06,LSM,103.649,6.71771
18.9474,9.70362,9.88013e+06,LSM,103.649,6.71771
19.4737,9.70362,9.90502e+06,LSM,103.649,6.71771
20.0,9.70362,9.9299e+06,LSM,103.649,6.71771
20.0,9.70362,9.9299e+06,LSM,103.649,6.71771
20.2564,9.4548,9.49902e+06,LSM,103.649,6.71771
20.5128,9.20599,9.07933e+06,LSM,103.649,6.71771
20.7692,8.95718,8.67083e+06,LSM,103.649,6.71771
21.0256,8.70837,8.27352e+06,LSM,103.649,6.71771
21.2821,8.45956,7.8874e+06,LSM,103.649,6.71771
21.5385,8.21075,7.51248e+06,LSM,103.649,6.71771
21.7949,7.96194,7.14875e+06,LSM,103.649,6.71771
22.0513,7.71313,6.79621e+06,LSM,103.649,6.71771
22.3077,7.46432,6.45486e+06,LSM,103.649,6.71771
22.5641,7.21551,6.1247e+06,LSM,103.649,6.71771
22.8205,6.9667,5.80573e+06,LSM,103.649,6.71771
23.0769,6.71789,5.49796e+06,LSM,103.649,6.71771
23.3333,6.46908,5.20138e+06,LSM,103.649,6.71771
23.5897,6.22027,4.91599e+06,LSM,103.649,6.71771
23.8462,5.97146,4.64179e+06,LSM,103.649,6.71771
24.1026,5.72264,4.37878e+06,LSM,103.649,6.71771
24.359,5.47383,4.12697e+06,LSM,103.649,6.71771
24.6154,5.22502,3.88634e+06,LSM,103.649,6.71771
24.8718,4.97621,3.65691e+06,LSM,103.649,6.71771
25.1282,4.7274,3.43867e+06,LSM,103.649,6.71771
25.3846,4.47859,3.23163e+06,LSM,103.649,6.71771
25.641,4.22978,3.03577e+06,LSM,103.649,6.71771
25.8974,3.98097,2.8511e+06,LSM,103.649,6.71771
26.1538,3.73216,2.67763e+06,LSM,103.649,6.71771
26.4103,3.48335,2.51535e+06,LSM,103.649,6.71771
26.6667,3.23454,2.36426e+06,LSM,103.649,6.71771
26.9231,2.98573,2.22437e+06,LSM,103.649,6.71771
27.1795,2.73692,2.09566e+06,LSM,103.649,6.71771
27.4359,2.48811,1.97815e+06,LSM,103.649,6.71771
27.6923,2.2393,1.87182e+06,LSM,103.649,6.71771
27.9487,1.99049,1.77669e+06,LSM,103.649,6.71771
28.2051,1.74167,1.69276e+06,LSM,103.649,6.71771
28.4615,1.49286,1.62001e+06,LSM,103.649,6.71771
28.7179,1.24405,1.55845e+06,LSM,103.649,6.71771
28.9744,0.995243,1.50809e+06,LSM,103.649,6.71771
29.2308,0.746432,1.46892e+06,LSM,103.649,6.71771
29.4872,0.497621,1.44094e+06,LSM,103.649,6.71771
29.7436,0.248811,1.42415e+06,LSM,103.649,6.71771
30.0,0.0,1.41856e+06,LSM,103.649,6.71771