File: experimental_data/postmortem_data/nanoindentation/modulus_hardness_map.csv
X_Position_mm,Y_Position_mm,Material_Phase,Youngs_Modulus_GPa,Hardness_GPa,Creep_Compliance_1_per_GPa,Max_Load_mN,Max_Displacement_nm,Contact_Stiffness_mN_per_nm,Elastic_Work_pJ,Plastic_Work_pJ,Loading_Rate_mN_per_s,Hold_Time_s,Indentation_Depth_nm
0.0,0.0,Ni,106.663,1.87043,8.07944e-06,11.133,1.05435e+07,0.00105591,5.86908e+10,7.29966e+10,1.45522,10,1.05435e+07
0.0,1.66667,YSZ_in_anode,172.002,12.5501,6.60055e-06,9.23263,5.42224e+06,0.00170273,2.50308e+10,3.31334e+10,1.87921,10,5.42224e+06
0.0,3.33333,YSZ_in_cathode,198.669,10.9318,4.36871e-06,10.8554,5.51954e+06,0.00196672,2.99584e+10,3.61539e+10,1.53833,10,5.51954e+06
0.0,5.0,YSZ_in_cathode,164.971,9.86229,6.39487e-06,8.28069,5.07045e+06,0.00163313,2.09934e+10,3.4577e+10,1.94569,10,5.07045e+06
0.526316,1.11111,YSZ_in_anode,194.326,12.9906,5.44734e-06,11.5785,6.01879e+06,0.00192373,3.48443e+10,4.41044e+10,1.06148,10,6.01879e+06
0.526316,2.77778,YSZ_electrolyte,154.901,12.5702,5.26745e-06,9.20149,6.00055e+06,0.00153344,2.7607e+10,4.69082e+10,1.03537,10,6.00055e+06
0.526316,4.44444,LSM,92.3281,10.4871,1.0929e-05,10.5451,1.15373e+07,0.000914002,6.08315e+10,8.003e+10,1.62638,10,1.15373e+07
1.05263,0.555556,YSZ_in_anode,194.898,13.1679,4.69059e-06,8.92541,4.62602e+06,0.00192939,2.06445e+10,3.51825e+10,1.0701,10,4.62602e+06
1.05263,2.22222,YSZ_electrolyte,167.818,12.8436,5.09594e-06,9.72513,5.85388e+06,0.00166131,2.84649e+10,3.70672e+10,1.28537,10,5.85388e+06
1.05263,3.88889,YSZ_in_cathode,170.793,11.423,5.76224e-06,9.24352,5.46705e+06,0.00169077,2.52674e+10,3.75849e+10,1.36272,10,5.46705e+06
1.57895,0.0,Ni,125.001,2.01573,7.91091e-06,8.7708,7.08781e+06,0.00123745,3.10829e+10,5.36247e+10,1.93525,10,7.08781e+06
1.57895,1.66667,Ni,112.691,2.29628,8.10563e-06,10.1913,9.13538e+06,0.00111559,4.65508e+10,7.31204e+10,1.27428,10,9.13538e+06
1.57895,3.33333,YSZ_in_cathode,177.688,14.4053,5.58815e-06,10.9724,6.23777e+06,0.00175902,3.42217e+10,5.30897e+10,0.971213,10,6.23777e+06
1.57895,5.0,LSM,85.0815,8.36406,1.05666e-05,8.63189,1.02484e+07,0.000842264,4.42317e+10,5.49198e+10,1.27829,10,1.02484e+07
2.10526,1.11111,Ni,117.726,2.14055,8.43933e-06,11.0721,9.50044e+06,0.00116543,5.25947e+10,6.54324e+10,0.947748,10,9.50044e+06
2.10526,2.77778,YSZ_electrolyte,186.659,12.6236,4.50067e-06,11.8881,6.43357e+06,0.00184783,3.82415e+10,6.38291e+10,0.631687,10,6.43357e+06
2.10526,4.44444,LSM,97.804,8.29495,8.75624e-06,8.49666,8.77563e+06,0.00096821,3.72818e+10,5.08546e+10,0.675358,10,8.77563e+06
2.63158,0.555556,Ni,98.0268,2.38136,1.18108e-05,8.1661,8.41505e+06,0.000970416,3.43591e+10,5.88161e+10,0.841225,10,8.41505e+06
2.63158,2.22222,YSZ_electrolyte,201.888,13.8574,5.66342e-06,10.0091,5.00806e+06,0.00199859,2.50631e+10,3.83679e+10,0.622653,10,5.00806e+06
2.63158,3.88889,YSZ_in_cathode,215.267,12.5989,5.56192e-06,10.9372,5.13235e+06,0.00213104,2.80668e+10,3.526e+10,1.45216,10,5.13235e+06
3.15789,0.0,YSZ_in_anode,185.142,11.543,6.47579e-06,11.132,6.07374e+06,0.00183281,3.38065e+10,5.55647e+10,0.552437,10,6.07374e+06
3.15789,1.66667,YSZ_in_anode,173.304,12.2754,5.68358e-06,11.1885,6.52156e+06,0.00171562,3.64834e+10,5.57184e+10,1.55359,10,6.52156e+06
3.15789,3.33333,LSM,84.3601,9.88568,1.39325e-05,10.1215,1.21198e+07,0.000835122,6.13349e+10,8.85939e+10,1.41508,10,1.21198e+07
3.15789,5.0,YSZ_in_cathode,168.133,14.4283,5.08188e-06,11.9915,7.20457e+06,0.00166443,4.31968e+10,5.83981e+10,0.630542,10,7.20457e+06
3.68421,1.11111,Ni,90.5709,1.8937,1.24696e-05,11.8934,1.3265e+07,0.000896606,7.8883e+10,9.98606e+10,1.88454,10,1.3265e+07
3.68421,2.77778,YSZ_electrolyte,198.26,12.3092,4.0962e-06,9.17247,4.67346e+06,0.00196267,2.14336e+10,3.03189e+10,0.828102,10,4.67346e+06
3.68421,4.44444,LSM,92.5066,9.3285,1.21534e-05,9.90407,1.0815e+07,0.000915769,5.35564e+10,8.51163e+10,1.16887,10,1.0815e+07
4.21053,0.555556,YSZ_in_anode,211.644,12.7096,4.95211e-06,11.4711,5.47502e+06,0.00209517,3.14021e+10,4.81894e+10,1.77445,10,5.47502e+06
4.21053,2.22222,YSZ_electrolyte,162.887,12.0247,5.35534e-06,8.54175,5.2972e+06,0.0016125,2.26237e+10,4.0071e+10,0.938108,10,5.2972e+06
4.21053,3.88889,LSM,97.8432,6.99031,9.87915e-06,11.0516,1.14099e+07,0.000968598,6.30488e+10,9.72816e+10,1.65832,10,1.14099e+07
4.73684,0.0,Ni,112.935,2.33465,8.08569e-06,9.32223,8.33829e+06,0.001118,3.88657e+10,5.4877e+10,1.03396,10,8.33829e+06
4.73684,1.66667,YSZ_in_anode,192.925,13.5576,4.97706e-06,11.7359,6.14489e+06,0.00190986,3.60579e+10,4.82256e+10,1.32801,10,6.14489e+06
4.73684,3.33333,YSZ_in_cathode,181.696,12.1062,6.3317e-06,11.7805,6.54945e+06,0.0017987,3.8578e+10,4.65949e+10,0.808421,10,6.54945e+06
4.73684,5.0,LSM,100.034,8.55058,1.10986e-05,11.7898,1.19054e+07,0.000990291,7.01808e+10,9.15031e+10,0.713984,10,1.19054e+07
5.26316,1.11111,Ni,119.187,2.07097,8.15069e-06,10.7712,9.12897e+06,0.00117989,4.91651e+10,6.02011e+10,0.804299,10,9.12897e+06
5.26316,2.77778,YSZ_electrolyte,196.449,13.596,5.65549e-06,10.2222,5.25631e+06,0.00194474,2.68654e+10,4.69426e+10,0.649706,10,5.25631e+06
5.26316,4.44444,YSZ_in_cathode,214.846,15.3088,4.15622e-06,10.7304,5.04518e+06,0.00212686,2.70685e+10,3.28517e+10,1.16642,10,5.04518e+06
5.78947,0.555556,Ni,99.0927,1.99686,9.5425e-06,10.2777,1.04771e+07,0.000980967,5.38407e+10,9.37435e+10,1.9741,10,1.04771e+07
5.78947,2.22222,YSZ_electrolyte,195.055,9.75865,4.78148e-06,8.14878,4.2201e+06,0.00193095,1.71943e+10,2.87926e+10,1.96364,10,4.2201e+06
5.78947,3.88889,LSM,87.7209,7.84918,1.12577e-05,10.9825,1.26469e+07,0.000868393,6.94476e+10,9.65705e+10,1.29727,10,1.26469e+07
6.31579,0.0,YSZ_in_anode,147.086,12.6123,6.97663e-06,11.724,8.05176e+06,0.00145608,4.71994e+10,6.34133e+10,1.97958,10,8.05176e+06
6.31579,1.66667,YSZ_in_anode,194.004,12.3617,4.27764e-06,11.5888,6.0341e+06,0.00192055,3.49639e+10,6.26292e+10,1.40624,10,6.0341e+06
6.31579,3.33333,LSM,104.609,8.37088,8.21044e-06,8.50177,8.20971e+06,0.00103557,3.48986e+10,6.01912e+10,1.7026,10,8.20971e+06
6.31579,5.0,YSZ_in_cathode,200.658,12.9814,5.68853e-06,8.05912,4.05713e+06,0.00198641,1.63484e+10,2.62265e+10,1.92487,10,4.05713e+06
6.84211,1.11111,YSZ_in_anode,205.033,12.7882,5.0023e-06,11.3624,5.59801e+06,0.00202973,3.18035e+10,4.99608e+10,1.87815,10,5.59801e+06
6.84211,2.77778,YSZ_electrolyte,163.067,12.4462,6.09506e-06,9.82873,6.08862e+06,0.00161428,2.99217e+10,5.2346e+10,1.10875,10,6.08862e+06
6.84211,4.44444,YSZ_in_cathode,182.518,12.8472,5.2036e-06,9.87897,5.46754e+06,0.00180684,2.70068e+10,3.41162e+10,1.69352,10,5.46754e+06
7.36842,0.555556,YSZ_in_anode,179.422,13.2,6.04576e-06,11.0482,6.22019e+06,0.00177619,34361009014.829,5.53477e+10,0.767629,10,6.22019e+06
7.36842,2.22222,YSZ_electrolyte,174.704,11.9206,5.70493e-06,8.38102,4.84598e+06,0.00172948,2.03071e+10,3.0471e+10,0.756276,10,4.84598e+06
7.36842,3.88889,LSM,83.8236,8.84918,1.2243e-05,8.8148,1.06226e+07,0.000829812,4.68182e+10,7.62776e+10,0.960764,10,1.06226e+07
7.89474,0.0,Ni,106.578,1.87464,9.51485e-06,11.8808,1.12606e+07,0.00105507,6.68925e+10,1.13184e+11,0.581985,10,1.12606e+07
7.89474,1.66667,YSZ_in_anode,202.848,12.1917,4.89678e-06,11.3974,5.67574e+06,0.00200809,3.23444e+10,3.93313e+10,1.77409,10,5.67574e+06
7.89474,3.33333,LSM,93.499,9.63058,9.05065e-06,11.5826,1.25137e+07,0.000925593,7.24705e+10,9.83653e+10,0.563129,10,1.25137e+07
7.89474,5.0,YSZ_in_cathode,171.574,13.39,5.48621e-06,9.69196,5.7062e+06,0.0016985,2.76521e+10,4.97316e+10,0.549439,10,5.7062e+06
8.42105,1.11111,YSZ_in_anode,194.406,12.8587,6.14707e-06,9.34586,4.85619e+06,0.00192452,2.26927e+10,3.03098e+10,0.822577,10,4.85619e+06
8.42105,2.77778,YSZ_electrolyte,213.667,12.9977,5.01379e-06,8.9142,4.21437e+06,0.00211519,1.87839e+10,2.67797e+10,1.34934,10,4.21437e+06
8.42105,4.44444,YSZ_in_cathode,183.773,12.0575,4.69618e-06,11.5925,6.3721e+06,0.00181926,3.69344e+10,6.64485e+10,1.39482,10,6.3721e+06
8.94737,0.555556,Ni,107.192,1.8388,1.11027e-05,9.7071,9.14774e+06,0.00106115,4.4399e+10,6.88049e+10,1.63771,10,9.14774e+06
8.94737,2.22222,YSZ_electrolyte,159.021,10.9503,5.41481e-06,8.66638,5.50515e+06,0.00157423,2.38549e+10,3.62086e+10,0.744937,10,5.50515e+06
8.94737,3.88889,YSZ_in_cathode,209.686,12.4245,4.21592e-06,8.25759,3.97805e+06,0.00207579,1.64246e+10,2.85538e+10,1.27786,10,3.97805e+06
9.47368,0.0,Ni,114.029,2.1534,7.46639e-06,10.0529,8.90556e+06,0.00112883,4.47634e+10,7.96243e+10,1.59005,10,8.90556e+06
9.47368,1.66667,YSZ_in_anode,190.36,11.3621,5.85175e-06,11.3317,6.0132e+06,0.00188447,3.40699e+10,4.60188e+10,1.68439,10,6.0132e+06
9.47368,3.33333,YSZ_in_cathode,178.784,12.4721,5.20449e-06,8.07779,4.56406e+06,0.00176987,1.84338e+10,3.19935e+10,1.43156,10,4.56406e+06
9.47368,5.0,LSM,100.65,8.2249,7.97535e-06,8.39612,8.4266e+06,0.000996383,3.53754e+10,6.26559e+10,0.889784,10,8.4266e+06
10.0,1.11111,Ni,103.279,2.29569,1.04721e-05,10.6608,1.04271e+07,0.00102241,5.55809e+10,9.20318e+10,0.773191,10,1.04271e+07
10.0,2.77778,YSZ_electrolyte,192.42,14.5537,6.16889e-06,9.47455,4.97389e+06,0.00190486,2.35627e+10,4.10887e+10,1.41338,10,4.97389e+06
10.0,4.44444,YSZ_in_cathode,220.737,13.7111,4.68708e-06,10.9003,4.98829e+06,0.00218518,2.71869e+10,3.40144e+10,0.946111,10,4.98829e+06
10.0,5.0,LSM,96.2876,10.0304,9.02649e-06,9.07293,9.5184e+06,0.000953199,4.31799e+10,5.27858e+10,0.862184,10,9.5184e+06