File: experimental_data/postmortem_data/nanoindentation/Ni_load_displacement.csv
Time_s,Load_mN,Displacement_nm,Phase,Modulus_GPa,Hardness_GPa
0.0,0.0,0.0,Ni,106.663,1.87043
0.204082,0.227205,30739.2,Ni,106.663,1.87043
0.408163,0.454409,86943.6,Ni,106.663,1.87043
0.612245,0.681614,159726,Ni,106.663,1.87043
0.816327,0.908819,245914,Ni,106.663,1.87043
1.02041,1.13602,343675,Ni,106.663,1.87043
1.22449,1.36323,451772,Ni,106.663,1.87043
1.42857,1.59043,569298,Ni,106.663,1.87043
1.63265,1.81764,695549,Ni,106.663,1.87043
1.83673,2.04484,829959,Ni,106.663,1.87043
2.04082,2.27205,972059,Ni,106.663,1.87043
2.2449,2.49925,1.12145e+06,Ni,106.663,1.87043
2.44898,2.72646,1.2778e+06,Ni,106.663,1.87043
2.65306,2.95366,1.44081e+06,Ni,106.663,1.87043
2.85714,3.18087,1.61022e+06,Ni,106.663,1.87043
3.06122,3.40807,1.78579e+06,Ni,106.663,1.87043
3.26531,3.63528,1.96731e+06,Ni,106.663,1.87043
3.46939,3.86248,2.1546e+06,Ni,106.663,1.87043
3.67347,4.08969,2.34748e+06,Ni,106.663,1.87043
3.87755,4.31689,2.54579e+06,Ni,106.663,1.87043
4.08163,4.54409,2.7494e+06,Ni,106.663,1.87043
4.28571,4.7713,2.95816e+06,Ni,106.663,1.87043
4.4898,4.9985,3.17195e+06,Ni,106.663,1.87043
4.69388,5.22571,3.39066e+06,Ni,106.663,1.87043
4.89796,5.45291,3.61418e+06,Ni,106.663,1.87043
5.10204,5.68012,3.8424e+06,Ni,106.663,1.87043
5.30612,5.90732,4.07524e+06,Ni,106.663,1.87043
5.5102,6.13453,4.31259e+06,Ni,106.663,1.87043
5.71429,6.36173,4.55439e+06,Ni,106.663,1.87043
5.91837,6.58894,4.80054e+06,Ni,106.663,1.87043
6.12245,6.81614,5.05097e+06,Ni,106.663,1.87043
6.32653,7.04335,5.30561e+06,Ni,106.663,1.87043
6.53061,7.27055,5.56439e+06,Ni,106.663,1.87043
6.73469,7.49776,5.82725e+06,Ni,106.663,1.87043
6.93878,7.72496,6.09412e+06,Ni,106.663,1.87043
7.14286,7.95217,6.36495e+06,Ni,106.663,1.87043
7.34694,8.17937,6.63967e+06,Ni,106.663,1.87043
7.55102,8.40658,6.91823e+06,Ni,106.663,1.87043
7.7551,8.63378,7.20059e+06,Ni,106.663,1.87043
7.95918,8.86098,7.48669e+06,Ni,106.663,1.87043
8.16327,9.08819,7.77647e+06,Ni,106.663,1.87043
8.36735,9.31539,8.06991e+06,Ni,106.663,1.87043
8.57143,9.5426,8.36694e+06,Ni,106.663,1.87043
8.77551,9.7698,8.66753e+06,Ni,106.663,1.87043
8.97959,9.99701,8.97164e+06,Ni,106.663,1.87043
9.18367,10.2242,9.27922e+06,Ni,106.663,1.87043
9.38776,10.4514,9.59024e+06,Ni,106.663,1.87043
9.59184,10.6786,9.90466e+06,Ni,106.663,1.87043
9.79592,10.9058,1.02224e+07,Ni,106.663,1.87043
10.0,11.133,1.05435e+07,Ni,106.663,1.87043
10.0,11.133,1.05435e+07,Ni,106.663,1.87043
10.5263,11.133,1.05713e+07,Ni,106.663,1.87043
11.0526,11.133,1.0599e+07,Ni,106.663,1.87043
11.5789,11.133,1.06268e+07,Ni,106.663,1.87043
12.1053,11.133,1.06545e+07,Ni,106.663,1.87043
12.6316,11.133,1.06823e+07,Ni,106.663,1.87043
13.1579,11.133,1.071e+07,Ni,106.663,1.87043
13.6842,11.133,1.07378e+07,Ni,106.663,1.87043
14.2105,11.133,1.07655e+07,Ni,106.663,1.87043
14.7368,11.133,1.07933e+07,Ni,106.663,1.87043
15.2632,11.133,1.0821e+07,Ni,106.663,1.87043
15.7895,11.133,1.08488e+07,Ni,106.663,1.87043
16.3158,11.133,1.08765e+07,Ni,106.663,1.87043
16.8421,11.133,1.09042e+07,Ni,106.663,1.87043
17.3684,11.133,1.0932e+07,Ni,106.663,1.87043
17.8947,11.133,1.09597e+07,Ni,106.663,1.87043
18.4211,11.133,1.09875e+07,Ni,106.663,1.87043
18.9474,11.133,1.10152e+07,Ni,106.663,1.87043
19.4737,11.133,1.1043e+07,Ni,106.663,1.87043
20.0,11.133,1.10707e+07,Ni,106.663,1.87043
20.0,11.133,1.10707e+07,Ni,106.663,1.87043
20.2564,10.8476,1.05903e+07,Ni,106.663,1.87043
20.5128,10.5621,1.01224e+07,Ni,106.663,1.87043
20.7692,10.2766,9.667e+06,Ni,106.663,1.87043
21.0256,9.99118,9.22405e+06,Ni,106.663,1.87043
21.2821,9.70572,8.79357e+06,Ni,106.663,1.87043
21.5385,9.42026,8.37557e+06,Ni,106.663,1.87043
21.7949,9.1348,7.97005e+06,Ni,106.663,1.87043
22.0513,8.84933,7.57701e+06,Ni,106.663,1.87043
22.3077,8.56387,7.19644e+06,Ni,106.663,1.87043
22.5641,8.27841,6.82835e+06,Ni,106.663,1.87043
22.8205,7.99295,6.47274e+06,Ni,106.663,1.87043
23.0769,7.70748,6.12961e+06,Ni,106.663,1.87043
23.3333,7.42202,5.79895e+06,Ni,106.663,1.87043
23.5897,7.13656,5.48077e+06,Ni,106.663,1.87043
23.8462,6.8511,5.17507e+06,Ni,106.663,1.87043
24.1026,6.56563,4.88185e+06,Ni,106.663,1.87043
24.359,6.28017,4.60111e+06,Ni,106.663,1.87043
24.6154,5.99471,4.33284e+06,Ni,106.663,1.87043
24.8718,5.70925,4.07705e+06,Ni,106.663,1.87043
25.1282,5.42378,3.83373e+06,Ni,106.663,1.87043
25.3846,5.13832,3.6029e+06,Ni,106.663,1.87043
25.641,4.85286,3.38454e+06,Ni,106.663,1.87043
25.8974,4.5674,3.17866e+06,Ni,106.663,1.87043
26.1538,4.28194,2.98526e+06,Ni,106.663,1.87043
26.4103,3.99647,2.80433e+06,Ni,106.663,1.87043
26.6667,3.71101,2.63589e+06,Ni,106.663,1.87043
26.9231,3.42555,2.47992e+06,Ni,106.663,1.87043
27.1795,3.14009,2.33643e+06,Ni,106.663,1.87043
27.4359,2.85462,2.20541e+06,Ni,106.663,1.87043
27.6923,2.56916,2.08687e+06,Ni,106.663,1.87043
27.9487,2.2837,1.98081e+06,Ni,106.663,1.87043
28.2051,1.99824,1.88723e+06,Ni,106.663,1.87043
28.4615,1.71277,1.80613e+06,Ni,106.663,1.87043
28.7179,1.42731,1.7375e+06,Ni,106.663,1.87043
28.9744,1.14185,1.68135e+06,Ni,106.663,1.87043
29.2308,0.856387,1.63768e+06,Ni,106.663,1.87043
29.4872,0.570925,1.60649e+06,Ni,106.663,1.87043
29.7436,0.285462,1.58777e+06,Ni,106.663,1.87043
30.0,0.0,1.58153e+06,Ni,106.663,1.87043