File: experimental_data/postmortem_data/nanoindentation/YSZ_electrolyte_load_displacement.csv
Time_s,Load_mN,Displacement_nm,Phase,Modulus_GPa,Hardness_GPa
0.0,0.0,0.0,YSZ_electrolyte,186.314,13.2201
0.204082,0.207112,16041.6,YSZ_electrolyte,186.314,13.2201
0.408163,0.414224,45372.5,YSZ_electrolyte,186.314,13.2201
0.612245,0.621335,83354.6,YSZ_electrolyte,186.314,13.2201
0.816327,0.828447,128333,YSZ_electrolyte,186.314,13.2201
1.02041,1.03556,179351,YSZ_electrolyte,186.314,13.2201
1.22449,1.24267,235762,YSZ_electrolyte,186.314,13.2201
1.42857,1.44978,297095,YSZ_electrolyte,186.314,13.2201
1.63265,1.65689,362980,YSZ_electrolyte,186.314,13.2201
1.83673,1.86401,433123,YSZ_electrolyte,186.314,13.2201
2.04082,2.07112,507280,YSZ_electrolyte,186.314,13.2201
2.2449,2.27823,585244,YSZ_electrolyte,186.314,13.2201
2.44898,2.48534,666837,YSZ_electrolyte,186.314,13.2201
2.65306,2.69245,751905,YSZ_electrolyte,186.314,13.2201
2.85714,2.89957,840311,YSZ_electrolyte,186.314,13.2201
3.06122,3.10668,931933,YSZ_electrolyte,186.314,13.2201
3.26531,3.31379,1.02666e+06,YSZ_electrolyte,186.314,13.2201
3.46939,3.5209,1.1244e+06,YSZ_electrolyte,186.314,13.2201
3.67347,3.72801,1.22506e+06,YSZ_electrolyte,186.314,13.2201
3.87755,3.93512,1.32855e+06,YSZ_electrolyte,186.314,13.2201
4.08163,4.14224,1.4348e+06,YSZ_electrolyte,186.314,13.2201
4.28571,4.34935,1.54375e+06,YSZ_electrolyte,186.314,13.2201
4.4898,4.55646,1.65532e+06,YSZ_electrolyte,186.314,13.2201
4.69388,4.76357,1.76946e+06,YSZ_electrolyte,186.314,13.2201
4.89796,4.97068,1.8861e+06,YSZ_electrolyte,186.314,13.2201
5.10204,5.1778,2.0052e+06,YSZ_electrolyte,186.314,13.2201
5.30612,5.38491,2.12671e+06,YSZ_electrolyte,186.314,13.2201
5.5102,5.59202,2.25057e+06,YSZ_electrolyte,186.314,13.2201
5.71429,5.79913,2.37676e+06,YSZ_electrolyte,186.314,13.2201
5.91837,6.00624,2.50521e+06,YSZ_electrolyte,186.314,13.2201
6.12245,6.21335,2.6359e+06,YSZ_electrolyte,186.314,13.2201
6.32653,6.42047,2.76879e+06,YSZ_electrolyte,186.314,13.2201
6.53061,6.62758,2.90384e+06,YSZ_electrolyte,186.314,13.2201
6.73469,6.83469,3.04102e+06,YSZ_electrolyte,186.314,13.2201
6.93878,7.0418,3.18029e+06,YSZ_electrolyte,186.314,13.2201
7.14286,7.24891,3.32162e+06,YSZ_electrolyte,186.314,13.2201
7.34694,7.45603,3.46499e+06,YSZ_electrolyte,186.314,13.2201
7.55102,7.66314,3.61036e+06,YSZ_electrolyte,186.314,13.2201
7.7551,7.87025,3.75771e+06,YSZ_electrolyte,186.314,13.2201
7.95918,8.07736,3.90701e+06,YSZ_electrolyte,186.314,13.2201
8.16327,8.28447,4.05824e+06,YSZ_electrolyte,186.314,13.2201
8.36735,8.49158,4.21137e+06,YSZ_electrolyte,186.314,13.2201
8.57143,8.6987,4.36638e+06,YSZ_electrolyte,186.314,13.2201
8.77551,8.90581,4.52325e+06,YSZ_electrolyte,186.314,13.2201
8.97959,9.11292,4.68195e+06,YSZ_electrolyte,186.314,13.2201
9.18367,9.32003,4.84247e+06,YSZ_electrolyte,186.314,13.2201
9.38776,9.52714,5.00477e+06,YSZ_electrolyte,186.314,13.2201
9.59184,9.73426,5.16886e+06,YSZ_electrolyte,186.314,13.2201
9.79592,9.94137,5.3347e+06,YSZ_electrolyte,186.314,13.2201
10.0,10.1485,5.50227e+06,YSZ_electrolyte,186.314,13.2201
10.0,10.1485,5.50227e+06,YSZ_electrolyte,186.314,13.2201
10.5263,10.1485,5.51675e+06,YSZ_electrolyte,186.314,13.2201
11.0526,10.1485,5.53123e+06,YSZ_electrolyte,186.314,13.2201
11.5789,10.1485,5.54571e+06,YSZ_electrolyte,186.314,13.2201
12.1053,10.1485,5.56019e+06,YSZ_electrolyte,186.314,13.2201
12.6316,10.1485,5.57467e+06,YSZ_electrolyte,186.314,13.2201
13.1579,10.1485,5.58915e+06,YSZ_electrolyte,186.314,13.2201
13.6842,10.1485,5.60363e+06,YSZ_electrolyte,186.314,13.2201
14.2105,10.1485,5.61811e+06,YSZ_electrolyte,186.314,13.2201
14.7368,10.1485,5.63259e+06,YSZ_electrolyte,186.314,13.2201
15.2632,10.1485,5.64707e+06,YSZ_electrolyte,186.314,13.2201
15.7895,10.1485,5.66155e+06,YSZ_electrolyte,186.314,13.2201
16.3158,10.1485,5.67603e+06,YSZ_electrolyte,186.314,13.2201
16.8421,10.1485,5.69051e+06,YSZ_electrolyte,186.314,13.2201
17.3684,10.1485,5.70499e+06,YSZ_electrolyte,186.314,13.2201
17.8947,10.1485,5.71946e+06,YSZ_electrolyte,186.314,13.2201
18.4211,10.1485,5.73394e+06,YSZ_electrolyte,186.314,13.2201
18.9474,10.1485,5.74842e+06,YSZ_electrolyte,186.314,13.2201
19.4737,10.1485,5.7629e+06,YSZ_electrolyte,186.314,13.2201
20.0,10.1485,5.77738e+06,YSZ_electrolyte,186.314,13.2201
20.0,10.1485,5.77738e+06,YSZ_electrolyte,186.314,13.2201
20.2564,9.88826,5.52669e+06,YSZ_electrolyte,186.314,13.2201
20.5128,9.62804,5.2825e+06,YSZ_electrolyte,186.314,13.2201
20.7692,9.36783,5.04483e+06,YSZ_electrolyte,186.314,13.2201
21.0256,9.10761,4.81367e+06,YSZ_electrolyte,186.314,13.2201
21.2821,8.84739,4.58902e+06,YSZ_electrolyte,186.314,13.2201
21.5385,8.58717,4.37089e+06,YSZ_electrolyte,186.314,13.2201
21.7949,8.32696,4.15926e+06,YSZ_electrolyte,186.314,13.2201
22.0513,8.06674,3.95415e+06,YSZ_electrolyte,186.314,13.2201
22.3077,7.80652,3.75554e+06,YSZ_electrolyte,186.314,13.2201
22.5641,7.54631,3.56345e+06,YSZ_electrolyte,186.314,13.2201
22.8205,7.28609,3.37787e+06,YSZ_electrolyte,186.314,13.2201
23.0769,7.02587,3.1988e+06,YSZ_electrolyte,186.314,13.2201
23.3333,6.76565,3.02625e+06,YSZ_electrolyte,186.314,13.2201
23.5897,6.50544,2.8602e+06,YSZ_electrolyte,186.314,13.2201
23.8462,6.24522,2.70067e+06,YSZ_electrolyte,186.314,13.2201
24.1026,5.985,2.54765e+06,YSZ_electrolyte,186.314,13.2201
24.359,5.72478,2.40114e+06,YSZ_electrolyte,186.314,13.2201
24.6154,5.46457,2.26114e+06,YSZ_electrolyte,186.314,13.2201
24.8718,5.20435,2.12765e+06,YSZ_electrolyte,186.314,13.2201
25.1282,4.94413,2.00068e+06,YSZ_electrolyte,186.314,13.2201
25.3846,4.68391,1.88021e+06,YSZ_electrolyte,186.314,13.2201
25.641,4.4237,1.76626e+06,YSZ_electrolyte,186.314,13.2201
25.8974,4.16348,1.65882e+06,YSZ_electrolyte,186.314,13.2201
26.1538,3.90326,1.55789e+06,YSZ_electrolyte,186.314,13.2201
26.4103,3.64304,1.46347e+06,YSZ_electrolyte,186.314,13.2201
26.6667,3.38283,1.37557e+06,YSZ_electrolyte,186.314,13.2201
26.9231,3.12261,1.29417e+06,YSZ_electrolyte,186.314,13.2201
27.1795,2.86239,1.21929e+06,YSZ_electrolyte,186.314,13.2201
27.4359,2.60217,1.15092e+06,YSZ_electrolyte,186.314,13.2201
27.6923,2.34196,1.08906e+06,YSZ_electrolyte,186.314,13.2201
27.9487,2.08174,1.03371e+06,YSZ_electrolyte,186.314,13.2201
28.2051,1.82152,984874,YSZ_electrolyte,186.314,13.2201
28.4615,1.5613,942549,YSZ_electrolyte,186.314,13.2201
28.7179,1.30109,906735,YSZ_electrolyte,186.314,13.2201
28.9744,1.04087,877433,YSZ_electrolyte,186.314,13.2201
29.2308,0.780652,854643,YSZ_electrolyte,186.314,13.2201
29.4872,0.520435,838364,YSZ_electrolyte,186.314,13.2201
29.7436,0.260217,828596,YSZ_electrolyte,186.314,13.2201
30.0,0.0,825340,YSZ_electrolyte,186.314,13.2201