File: experimental_data/postmortem_data/nanoindentation/YSZ_in_anode_load_displacement.csv
Time_s,Load_mN,Displacement_nm,Phase,Modulus_GPa,Hardness_GPa
0.0,0.0,0.0,YSZ_in_anode,165.631,12.1023
0.204082,0.191081,16648.1,YSZ_in_anode,165.631,12.1023
0.408163,0.382162,47087.9,YSZ_in_anode,165.631,12.1023
0.612245,0.573243,86506,YSZ_in_anode,165.631,12.1023
0.816327,0.764325,133185,YSZ_in_anode,165.631,12.1023
1.02041,0.955406,186131,YSZ_in_anode,165.631,12.1023
1.22449,1.14649,244676,YSZ_in_anode,165.631,12.1023
1.42857,1.33757,308327,YSZ_in_anode,165.631,12.1023
1.63265,1.52865,376703,YSZ_in_anode,165.631,12.1023
1.83673,1.71973,449498,YSZ_in_anode,165.631,12.1023
2.04082,1.91081,526459,YSZ_in_anode,165.631,12.1023
2.2449,2.10189,607370,YSZ_in_anode,165.631,12.1023
2.44898,2.29297,692048,YSZ_in_anode,165.631,12.1023
2.65306,2.48405,780332,YSZ_in_anode,165.631,12.1023
2.85714,2.67514,872080,YSZ_in_anode,165.631,12.1023
3.06122,2.86622,967167,YSZ_in_anode,165.631,12.1023
3.26531,3.0573,1.06548e+06,YSZ_in_anode,165.631,12.1023
3.46939,3.24838,1.16691e+06,YSZ_in_anode,165.631,12.1023
3.67347,3.43946,1.27137e+06,YSZ_in_anode,165.631,12.1023
3.87755,3.63054,1.37878e+06,YSZ_in_anode,165.631,12.1023
4.08163,3.82162,1.48905e+06,YSZ_in_anode,165.631,12.1023
4.28571,4.0127,1.60211e+06,YSZ_in_anode,165.631,12.1023
4.4898,4.20379,1.7179e+06,YSZ_in_anode,165.631,12.1023
4.69388,4.39487,1.83635e+06,YSZ_in_anode,165.631,12.1023
4.89796,4.58595,1.95741e+06,YSZ_in_anode,165.631,12.1023
5.10204,4.77703,2.08101e+06,YSZ_in_anode,165.631,12.1023
5.30612,4.96811,2.20711e+06,YSZ_in_anode,165.631,12.1023
5.5102,5.15919,2.33566e+06,YSZ_in_anode,165.631,12.1023
5.71429,5.35027,2.46662e+06,YSZ_in_anode,165.631,12.1023
5.91837,5.54135,2.59993e+06,YSZ_in_anode,165.631,12.1023
6.12245,5.73243,2.73556e+06,YSZ_in_anode,165.631,12.1023
6.32653,5.92352,2.87347e+06,YSZ_in_anode,165.631,12.1023
6.53061,6.1146,3.01363e+06,YSZ_in_anode,165.631,12.1023
6.73469,6.30568,3.15599e+06,YSZ_in_anode,165.631,12.1023
6.93878,6.49676,3.30052e+06,YSZ_in_anode,165.631,12.1023
7.14286,6.68784,3.4472e+06,YSZ_in_anode,165.631,12.1023
7.34694,6.87892,3.59599e+06,YSZ_in_anode,165.631,12.1023
7.55102,7.07,3.74686e+06,YSZ_in_anode,165.631,12.1023
7.7551,7.26108,3.89978e+06,YSZ_in_anode,165.631,12.1023
7.95918,7.45216,4.05472e+06,YSZ_in_anode,165.631,12.1023
8.16327,7.64325,4.21167e+06,YSZ_in_anode,165.631,12.1023
8.36735,7.83433,4.37059e+06,YSZ_in_anode,165.631,12.1023
8.57143,8.02541,4.53146e+06,YSZ_in_anode,165.631,12.1023
8.77551,8.21649,4.69426e+06,YSZ_in_anode,165.631,12.1023
8.97959,8.40757,4.85896e+06,YSZ_in_anode,165.631,12.1023
9.18367,8.59865,5.02554e+06,YSZ_in_anode,165.631,12.1023
9.38776,8.78973,5.19399e+06,YSZ_in_anode,165.631,12.1023
9.59184,8.98081,5.36428e+06,YSZ_in_anode,165.631,12.1023
9.79592,9.17189,5.53638e+06,YSZ_in_anode,165.631,12.1023
10.0,9.36298,5.71029e+06,YSZ_in_anode,165.631,12.1023
10.0,9.36298,5.71029e+06,YSZ_in_anode,165.631,12.1023
10.5263,9.36298,5.72532e+06,YSZ_in_anode,165.631,12.1023
11.0526,9.36298,5.74035e+06,YSZ_in_anode,165.631,12.1023
11.5789,9.36298,5.75538e+06,YSZ_in_anode,165.631,12.1023
12.1053,9.36298,5.7704e+06,YSZ_in_anode,165.631,12.1023
12.6316,9.36298,5.78543e+06,YSZ_in_anode,165.631,12.1023
13.1579,9.36298,5.80046e+06,YSZ_in_anode,165.631,12.1023
13.6842,9.36298,5.81548e+06,YSZ_in_anode,165.631,12.1023
14.2105,9.36298,5.83051e+06,YSZ_in_anode,165.631,12.1023
14.7368,9.36298,5.84554e+06,YSZ_in_anode,165.631,12.1023
15.2632,9.36298,5.86057e+06,YSZ_in_anode,165.631,12.1023
15.7895,9.36298,5.87559e+06,YSZ_in_anode,165.631,12.1023
16.3158,9.36298,5.89062e+06,YSZ_in_anode,165.631,12.1023
16.8421,9.36298,5.90565e+06,YSZ_in_anode,165.631,12.1023
17.3684,9.36298,5.92067e+06,YSZ_in_anode,165.631,12.1023
17.8947,9.36298,5.9357e+06,YSZ_in_anode,165.631,12.1023
18.4211,9.36298,5.95073e+06,YSZ_in_anode,165.631,12.1023
18.9474,9.36298,5.96575e+06,YSZ_in_anode,165.631,12.1023
19.4737,9.36298,5.98078e+06,YSZ_in_anode,165.631,12.1023
20.0,9.36298,5.99581e+06,YSZ_in_anode,165.631,12.1023
20.0,9.36298,5.99581e+06,YSZ_in_anode,165.631,12.1023
20.2564,9.1229,5.73564e+06,YSZ_in_anode,165.631,12.1023
20.5128,8.88282,5.48222e+06,YSZ_in_anode,165.631,12.1023
20.7692,8.64275,5.23556e+06,YSZ_in_anode,165.631,12.1023
21.0256,8.40267,4.99566e+06,YSZ_in_anode,165.631,12.1023
21.2821,8.16259,4.76252e+06,YSZ_in_anode,165.631,12.1023
21.5385,7.92252,4.53614e+06,YSZ_in_anode,165.631,12.1023
21.7949,7.68244,4.31651e+06,YSZ_in_anode,165.631,12.1023
22.0513,7.44237,4.10364e+06,YSZ_in_anode,165.631,12.1023
22.3077,7.20229,3.89753e+06,YSZ_in_anode,165.631,12.1023
22.5641,6.96221,3.69818e+06,YSZ_in_anode,165.631,12.1023
22.8205,6.72214,3.50558e+06,YSZ_in_anode,165.631,12.1023
23.0769,6.48206,3.31974e+06,YSZ_in_anode,165.631,12.1023
23.3333,6.24198,3.14066e+06,YSZ_in_anode,165.631,12.1023
23.5897,6.00191,2.96834e+06,YSZ_in_anode,165.631,12.1023
23.8462,5.76183,2.80277e+06,YSZ_in_anode,165.631,12.1023
24.1026,5.52176,2.64397e+06,YSZ_in_anode,165.631,12.1023
24.359,5.28168,2.49192e+06,YSZ_in_anode,165.631,12.1023
24.6154,5.0416,2.34663e+06,YSZ_in_anode,165.631,12.1023
24.8718,4.80153,2.20809e+06,YSZ_in_anode,165.631,12.1023
25.1282,4.56145,2.07632e+06,YSZ_in_anode,165.631,12.1023
25.3846,4.32137,1.9513e+06,YSZ_in_anode,165.631,12.1023
25.641,4.0813,1.83304e+06,YSZ_in_anode,165.631,12.1023
25.8974,3.84122,1.72154e+06,YSZ_in_anode,165.631,12.1023
26.1538,3.60114,1.61679e+06,YSZ_in_anode,165.631,12.1023
26.4103,3.36107,1.5188e+06,YSZ_in_anode,165.631,12.1023
26.6667,3.12099,1.42757e+06,YSZ_in_anode,165.631,12.1023
26.9231,2.88092,1.3431e+06,YSZ_in_anode,165.631,12.1023
27.1795,2.64084,1.26539e+06,YSZ_in_anode,165.631,12.1023
27.4359,2.40076,1.19443e+06,YSZ_in_anode,165.631,12.1023
27.6923,2.16069,1.13023e+06,YSZ_in_anode,165.631,12.1023
27.9487,1.92061,1.07279e+06,YSZ_in_anode,165.631,12.1023
28.2051,1.68053,1.02211e+06,YSZ_in_anode,165.631,12.1023
28.4615,1.44046,978184,YSZ_in_anode,165.631,12.1023
28.7179,1.20038,941016,YSZ_in_anode,165.631,12.1023
28.9744,0.960305,910606,YSZ_in_anode,165.631,12.1023
29.2308,0.720229,886954,YSZ_in_anode,165.631,12.1023
29.4872,0.480153,870060,YSZ_in_anode,165.631,12.1023
29.7436,0.240076,859923,YSZ_in_anode,165.631,12.1023
30.0,0.0,856544,YSZ_in_anode,165.631,12.1023