File: experimental_data/postmortem_data/nanoindentation/YSZ_in_cathode_load_displacement.csv
Time_s,Load_mN,Displacement_nm,Phase,Modulus_GPa,Hardness_GPa
0.0,0.0,0.0,YSZ_in_cathode,198.669,10.9318
0.204082,0.221539,16092,YSZ_in_cathode,198.669,10.9318
0.408163,0.443078,45514.9,YSZ_in_cathode,198.669,10.9318
0.612245,0.664617,83616.2,YSZ_in_cathode,198.669,10.9318
0.816327,0.886156,128736,YSZ_in_cathode,198.669,10.9318
1.02041,1.10769,179913,YSZ_in_cathode,198.669,10.9318
1.22449,1.32923,236502,YSZ_in_cathode,198.669,10.9318
1.42857,1.55077,298027,YSZ_in_cathode,198.669,10.9318
1.63265,1.77231,364119,YSZ_in_cathode,198.669,10.9318
1.83673,1.99385,434483,YSZ_in_cathode,198.669,10.9318
2.04082,2.21539,508872,YSZ_in_cathode,198.669,10.9318
2.2449,2.43693,587081,YSZ_in_cathode,198.669,10.9318
2.44898,2.65847,668930,YSZ_in_cathode,198.669,10.9318
2.65306,2.88001,754265,YSZ_in_cathode,198.669,10.9318
2.85714,3.10154,842948,YSZ_in_cathode,198.669,10.9318
3.06122,3.32308,934858,YSZ_in_cathode,198.669,10.9318
3.26531,3.54462,1.02988e+06,YSZ_in_cathode,198.669,10.9318
3.46939,3.76616,1.12793e+06,YSZ_in_cathode,198.669,10.9318
3.67347,3.9877,1.2289e+06,YSZ_in_cathode,198.669,10.9318
3.87755,4.20924,1.33272e+06,YSZ_in_cathode,198.669,10.9318
4.08163,4.43078,1.43931e+06,YSZ_in_cathode,198.669,10.9318
4.28571,4.65232,1.54859e+06,YSZ_in_cathode,198.669,10.9318
4.4898,4.87386,1.66051e+06,YSZ_in_cathode,198.669,10.9318
4.69388,5.09539,1.77501e+06,YSZ_in_cathode,198.669,10.9318
4.89796,5.31693,1.89202e+06,YSZ_in_cathode,198.669,10.9318
5.10204,5.53847,2.01149e+06,YSZ_in_cathode,198.669,10.9318
5.30612,5.76001,2.13338e+06,YSZ_in_cathode,198.669,10.9318
5.5102,5.98155,2.25764e+06,YSZ_in_cathode,198.669,10.9318
5.71429,6.20309,2.38422e+06,YSZ_in_cathode,198.669,10.9318
5.91837,6.42463,2.51308e+06,YSZ_in_cathode,198.669,10.9318
6.12245,6.64617,2.64418e+06,YSZ_in_cathode,198.669,10.9318
6.32653,6.86771,2.77748e+06,YSZ_in_cathode,198.669,10.9318
6.53061,7.08925,2.91295e+06,YSZ_in_cathode,198.669,10.9318
6.73469,7.31078,3.05056e+06,YSZ_in_cathode,198.669,10.9318
6.93878,7.53232,3.19027e+06,YSZ_in_cathode,198.669,10.9318
7.14286,7.75386,3.33204e+06,YSZ_in_cathode,198.669,10.9318
7.34694,7.9754,3.47586e+06,YSZ_in_cathode,198.669,10.9318
7.55102,8.19694,3.62169e+06,YSZ_in_cathode,198.669,10.9318
7.7551,8.41848,3.7695e+06,YSZ_in_cathode,198.669,10.9318
7.95918,8.64002,3.91927e+06,YSZ_in_cathode,198.669,10.9318
8.16327,8.86156,4.07098e+06,YSZ_in_cathode,198.669,10.9318
8.36735,9.0831,4.22459e+06,YSZ_in_cathode,198.669,10.9318
8.57143,9.30463,4.38009e+06,YSZ_in_cathode,198.669,10.9318
8.77551,9.52617,4.53745e+06,YSZ_in_cathode,198.669,10.9318
8.97959,9.74771,4.69664e+06,YSZ_in_cathode,198.669,10.9318
9.18367,9.96925,4.85766e+06,YSZ_in_cathode,198.669,10.9318
9.38776,10.1908,5.02048e+06,YSZ_in_cathode,198.669,10.9318
9.59184,10.4123,5.18508e+06,YSZ_in_cathode,198.669,10.9318
9.79592,10.6339,5.35144e+06,YSZ_in_cathode,198.669,10.9318
10.0,10.8554,5.51954e+06,YSZ_in_cathode,198.669,10.9318
10.0,10.8554,5.51954e+06,YSZ_in_cathode,198.669,10.9318
10.5263,10.8554,5.53406e+06,YSZ_in_cathode,198.669,10.9318
11.0526,10.8554,5.54859e+06,YSZ_in_cathode,198.669,10.9318
11.5789,10.8554,5.56311e+06,YSZ_in_cathode,198.669,10.9318
12.1053,10.8554,5.57764e+06,YSZ_in_cathode,198.669,10.9318
12.6316,10.8554,5.59216e+06,YSZ_in_cathode,198.669,10.9318
13.1579,10.8554,5.60669e+06,YSZ_in_cathode,198.669,10.9318
13.6842,10.8554,5.62122e+06,YSZ_in_cathode,198.669,10.9318
14.2105,10.8554,5.63574e+06,YSZ_in_cathode,198.669,10.9318
14.7368,10.8554,5.65027e+06,YSZ_in_cathode,198.669,10.9318
15.2632,10.8554,5.66479e+06,YSZ_in_cathode,198.669,10.9318
15.7895,10.8554,5.67932e+06,YSZ_in_cathode,198.669,10.9318
16.3158,10.8554,5.69384e+06,YSZ_in_cathode,198.669,10.9318
16.8421,10.8554,5.70837e+06,YSZ_in_cathode,198.669,10.9318
17.3684,10.8554,5.72289e+06,YSZ_in_cathode,198.669,10.9318
17.8947,10.8554,5.73742e+06,YSZ_in_cathode,198.669,10.9318
18.4211,10.8554,5.75194e+06,YSZ_in_cathode,198.669,10.9318
18.9474,10.8554,5.76647e+06,YSZ_in_cathode,198.669,10.9318
19.4737,10.8554,5.78099e+06,YSZ_in_cathode,198.669,10.9318
20.0,10.8554,5.79552e+06,YSZ_in_cathode,198.669,10.9318
20.0,10.8554,5.79552e+06,YSZ_in_cathode,198.669,10.9318
20.2564,10.5771,5.54403e+06,YSZ_in_cathode,198.669,10.9318
20.5128,10.2987,5.29908e+06,YSZ_in_cathode,198.669,10.9318
20.7692,10.0204,5.06067e+06,YSZ_in_cathode,198.669,10.9318
21.0256,9.74203,4.82878e+06,YSZ_in_cathode,198.669,10.9318
21.2821,9.46369,4.60343e+06,YSZ_in_cathode,198.669,10.9318
21.5385,9.18534,4.3846e+06,YSZ_in_cathode,198.669,10.9318
21.7949,8.907,4.17231e+06,YSZ_in_cathode,198.669,10.9318
22.0513,8.62866,3.96656e+06,YSZ_in_cathode,198.669,10.9318
22.3077,8.35031,3.76733e+06,YSZ_in_cathode,198.669,10.9318
22.5641,8.07197,3.57464e+06,YSZ_in_cathode,198.669,10.9318
22.8205,7.79363,3.38847e+06,YSZ_in_cathode,198.669,10.9318
23.0769,7.51528,3.20884e+06,YSZ_in_cathode,198.669,10.9318
23.3333,7.23694,3.03575e+06,YSZ_in_cathode,198.669,10.9318
23.5897,6.95859,2.86918e+06,YSZ_in_cathode,198.669,10.9318
23.8462,6.68025,2.70915e+06,YSZ_in_cathode,198.669,10.9318
24.1026,6.40191,2.55564e+06,YSZ_in_cathode,198.669,10.9318
24.359,6.12356,2.40867e+06,YSZ_in_cathode,198.669,10.9318
24.6154,5.84522,2.26824e+06,YSZ_in_cathode,198.669,10.9318
24.8718,5.56688,2.13433e+06,YSZ_in_cathode,198.669,10.9318
25.1282,5.28853,2.00696e+06,YSZ_in_cathode,198.669,10.9318
25.3846,5.01019,1.88611e+06,YSZ_in_cathode,198.669,10.9318
25.641,4.73184,1.7718e+06,YSZ_in_cathode,198.669,10.9318
25.8974,4.4535,1.66403e+06,YSZ_in_cathode,198.669,10.9318
26.1538,4.17516,1.56278e+06,YSZ_in_cathode,198.669,10.9318
26.4103,3.89681,1.46807e+06,YSZ_in_cathode,198.669,10.9318
26.6667,3.61847,1.37988e+06,YSZ_in_cathode,198.669,10.9318
26.9231,3.34013,1.29823e+06,YSZ_in_cathode,198.669,10.9318
27.1795,3.06178,1.22312e+06,YSZ_in_cathode,198.669,10.9318
27.4359,2.78344,1.15453e+06,YSZ_in_cathode,198.669,10.9318
27.6923,2.50509,1.09248e+06,YSZ_in_cathode,198.669,10.9318
27.9487,2.22675,1.03695e+06,YSZ_in_cathode,198.669,10.9318
28.2051,1.94841,987965,YSZ_in_cathode,198.669,10.9318
28.4615,1.67006,945507,YSZ_in_cathode,198.669,10.9318
28.7179,1.39172,909581,YSZ_in_cathode,198.669,10.9318
28.9744,1.11338,880187,YSZ_in_cathode,198.669,10.9318
29.2308,0.835031,857325,YSZ_in_cathode,198.669,10.9318
29.4872,0.556688,840995,YSZ_in_cathode,198.669,10.9318
29.7436,0.278344,831197,YSZ_in_cathode,198.669,10.9318
30.0,0.0,827931,YSZ_in_cathode,198.669,10.9318